Saved at time: 7283309 milliseconds
Integration time: 1500000
Scans to average: 0
Boxcar smoothing: 0
Wavelengths	Intensities
337.35134888	1669.00000000
337.80362194	1683.00000000
338.25595141	1692.00000000
338.70833725	1681.00000000
339.16077942	1654.00000000
339.61327788	1637.00000000
340.06583261	1665.00000000
340.51844356	1596.00000000
340.97111069	1610.00000000
341.42383397	1598.00000000
341.87661336	1574.00000000
342.32944883	1602.00000000
342.78234033	1618.00000000
343.23528784	1630.00000000
343.68829131	1667.00000000
344.14135070	1638.00000000
344.59446599	1661.00000000
345.04763714	1618.00000000
345.50086410	1600.00000000
345.95414684	1677.00000000
346.40748532	1634.00000000
346.86087951	1627.00000000
347.31432937	1650.00000000
347.76783486	1684.00000000
348.22139595	1640.00000000
348.67501260	1636.00000000
349.12868478	1658.00000000
349.58241244	1634.00000000
350.03619554	1669.00000000
350.49003406	1647.00000000
350.94392796	1639.00000000
351.39787720	1605.00000000
351.85188173	1635.00000000
352.30594153	1596.00000000
352.76005657	1622.00000000
353.21422679	1609.00000000
353.66845217	1654.00000000
354.12273266	1601.00000000
354.57706824	1615.00000000
355.03145886	1630.00000000
355.48590449	1651.00000000
355.94040509	1653.00000000
356.39496062	1633.00000000
356.84957105	1637.00000000
357.30423634	1658.00000000
357.75895646	1664.00000000
358.21373136	1626.00000000
358.66856102	1592.00000000
359.12344538	1659.00000000
359.57838442	1667.00000000
360.03337811	1576.00000000
360.48842639	1661.00000000
360.94352924	1592.00000000
361.39868662	1650.00000000
361.85389850	1652.00000000
362.30916483	1657.00000000
362.76448558	1673.00000000
363.21986071	1603.00000000
363.67529018	1626.00000000
364.13077397	1667.00000000
364.58631202	1656.00000000
365.04190431	1610.00000000
365.49755080	1586.00000000
365.95325145	1687.00000000
366.40900623	1613.00000000
366.86481509	1663.00000000
367.32067801	1682.00000000
367.77659494	1661.00000000
368.23256584	1679.00000000
368.68859069	1655.00000000
369.14466944	1629.00000000
369.60080206	1668.00000000
370.05698851	1619.00000000
370.51322875	1581.00000000
370.96952275	1619.00000000
371.42587047	1683.00000000
371.88227187	1685.00000000
372.33872691	1688.00000000
372.79523557	1620.00000000
373.25179780	1607.00000000
373.70841357	1660.00000000
374.16508283	1661.00000000
374.62180556	1671.00000000
375.07858171	1680.00000000
375.53541125	1690.00000000
375.99229415	1689.00000000
376.44923035	1590.00000000
376.90621984	1632.00000000
377.36326257	1690.00000000
377.82035850	1633.00000000
378.27750760	1649.00000000
378.73470984	1359.00000000
379.19196516	1640.00000000
379.64927355	1681.00000000
380.10663495	1546.00000000
380.56404934	1637.00000000
381.02151668	1667.00000000
381.47903693	1704.00000000
381.93661005	1648.00000000
382.39423600	1634.00000000
382.85191476	1691.00000000
383.30964628	1649.00000000
383.76743053	1666.00000000
384.22526746	1670.00000000
384.68315705	1636.00000000
385.14109926	1702.00000000
385.59909404	1673.00000000
386.05714137	1673.00000000
386.51524120	1681.00000000
386.97339351	1672.00000000
387.43159824	1670.00000000
387.88985537	1686.00000000
388.34816486	1694.00000000
388.80652667	1685.00000000
389.26494076	1711.00000000
389.72340710	1703.00000000
390.18192566	1698.00000000
390.64049638	1690.00000000
391.09911925	1711.00000000
391.55779422	1654.00000000
392.01652125	1725.00000000
392.47530030	1700.00000000
392.93413135	1579.00000000
393.39301436	1742.00000000
393.85194927	1715.00000000
394.31093607	1643.00000000
394.76997472	1703.00000000
395.22906517	1679.00000000
395.68820739	1649.00000000
396.14740134	1740.00000000
396.60664699	1764.00000000
397.06594429	1698.00000000
397.52529322	1739.00000000
397.98469374	1740.00000000
398.44414581	1709.00000000
398.90364938	1666.00000000
399.36320444	1740.00000000
399.82281093	1739.00000000
400.28246882	1724.00000000
400.74217808	1776.00000000
401.20193867	1717.00000000
401.66175054	1739.00000000
402.12161368	1772.00000000
402.58152803	1751.00000000
403.04149356	1730.00000000
403.50151023	1785.00000000
403.96157802	1767.00000000
404.42169687	1761.00000000
404.88186676	1734.00000000
405.34208764	1726.00000000
405.80235949	1766.00000000
406.26268226	1721.00000000
406.72305591	1732.00000000
407.18348042	1779.00000000
407.64395574	1792.00000000
408.10448183	1762.00000000
408.56505866	1700.00000000
409.02568620	1716.00000000
409.48636440	1711.00000000
409.94709324	1747.00000000
410.40787266	1748.00000000
410.86870264	1690.00000000
411.32958314	1770.00000000
411.79051412	1752.00000000
412.25149554	1644.00000000
412.71252738	1725.00000000
413.17360958	1778.00000000
413.63474212	1784.00000000
414.09592496	1797.00000000
414.55715806	1823.00000000
415.01844138	1755.00000000
415.47977490	1750.00000000
415.94115856	1799.00000000
416.40259233	1808.00000000
416.86407619	1721.00000000
417.32561008	1727.00000000
417.78719398	1794.00000000
418.24882784	1745.00000000
418.71051164	1818.00000000
419.17224533	1736.00000000
419.63402887	1806.00000000
420.09586223	1809.00000000
420.55774538	1772.00000000
421.01967827	1770.00000000
421.48166087	1797.00000000
421.94369315	1748.00000000
422.40577506	1823.00000000
422.86790657	1786.00000000
423.33008764	1684.00000000
423.79231823	1834.00000000
424.25459832	1854.00000000
424.71692786	1791.00000000
425.17930681	1821.00000000
425.64173514	1801.00000000
426.10421281	1834.00000000
426.56673978	1779.00000000
427.02931602	1709.00000000
427.49194150	1814.00000000
427.95461617	1850.00000000
428.41733999	1852.00000000
428.88011294	1857.00000000
429.34293497	1856.00000000
429.80580604	1747.00000000
430.26872613	1812.00000000
430.73169519	1862.00000000
431.19471319	1834.00000000
431.65778008	1818.00000000
432.12089584	1831.00000000
432.58406043	1850.00000000
433.04727380	1696.00000000
433.51053593	1801.00000000
433.97384677	1892.00000000
434.43720630	1851.00000000
434.90061446	1774.00000000
435.36407123	1903.00000000
435.82757657	1952.00000000
436.29113044	1862.00000000
436.75473281	1903.00000000
437.21838363	1896.00000000
437.68208288	1875.00000000
438.14583051	1936.00000000
438.60962648	1862.00000000
439.07347077	1881.00000000
439.53736333	1927.00000000
440.00130413	1892.00000000
440.46529314	1941.00000000
440.92933030	1912.00000000
441.39341559	1844.00000000
441.85754898	1909.00000000
442.32173041	1929.00000000
442.78595986	1942.00000000
443.25023730	1910.00000000
443.71456267	1910.00000000
444.17893595	1977.00000000
444.64335711	1990.00000000
445.10782609	1889.00000000
445.57234287	1965.00000000
446.03690741	1989.00000000
446.50151967	1949.00000000
446.96617962	1995.00000000
447.43088721	1978.00000000
447.89564242	2034.00000000
448.36044520	2069.00000000
448.82529553	2052.00000000
449.29019335	2080.00000000
449.75513864	2016.00000000
450.22013135	2076.00000000
450.68517146	2054.00000000
451.15025892	2017.00000000
451.61539370	2010.00000000
452.08057576	2077.00000000
452.54580506	2096.00000000
453.01108157	2084.00000000
453.47640525	2091.00000000
453.94177607	2048.00000000
454.40719398	2066.00000000
454.87265895	2046.00000000
455.33817095	2076.00000000
455.80372993	2077.00000000
456.26933586	2093.00000000
456.73498870	2083.00000000
457.20068842	2122.00000000
457.66643498	2129.00000000
458.13222835	1985.00000000
458.59806847	1865.00000000
459.06395533	2105.00000000
459.52988888	2071.00000000
459.99586908	2156.00000000
460.46189590	2170.00000000
460.92796931	2071.00000000
461.39408926	2164.00000000
461.86025571	2101.00000000
462.32646864	2153.00000000
462.79272800	2139.00000000
463.25903377	2162.00000000
463.72538589	2170.00000000
464.19178433	2123.00000000
464.65822906	2089.00000000
465.12472005	2136.00000000
465.59125725	2131.00000000
466.05784062	2145.00000000
466.52447013	2135.00000000
466.99114575	2102.00000000
467.45786744	2135.00000000
467.92463515	2140.00000000
468.39144886	2125.00000000
468.85830852	2096.00000000
469.32521410	2139.00000000
469.79216557	2170.00000000
470.25916288	2147.00000000
470.72620600	2168.00000000
471.19329489	2153.00000000
471.66042952	2176.00000000
472.12760985	2217.00000000
472.59483583	2215.00000000
473.06210745	2224.00000000
473.52942465	2269.00000000
473.99678740	2321.00000000
474.46419567	2206.00000000
474.93164941	2289.00000000
475.39914860	2303.00000000
475.86669319	2233.00000000
476.33428315	2354.00000000
476.80191844	2310.00000000
477.26959902	2330.00000000
477.73732486	2294.00000000
478.20509592	2310.00000000
478.67291216	2339.00000000
479.14077355	2347.00000000
479.60868006	2332.00000000
480.07663163	2332.00000000
480.54462824	2311.00000000
481.01266985	2340.00000000
481.48075642	2326.00000000
481.94888792	2358.00000000
482.41706430	2306.00000000
482.88528554	2330.00000000
483.35355160	2336.00000000
483.82186243	2364.00000000
484.29021801	2390.00000000
484.75861829	2362.00000000
485.22706324	2341.00000000
485.69555282	2403.00000000
486.16408699	2394.00000000
486.63266573	2386.00000000
487.10128898	2398.00000000
487.56995672	2455.00000000
488.03866891	2468.00000000
488.50742551	2435.00000000
488.97622648	2451.00000000
489.44507179	2401.00000000
489.91396139	2486.00000000
490.38289527	2463.00000000
490.85187337	2575.00000000
491.32089566	2581.00000000
491.78996210	2614.00000000
492.25907266	2565.00000000
492.72822730	2401.00000000
493.19742598	2606.00000000
493.66666867	2613.00000000
494.13595533	2606.00000000
494.60528591	2619.00000000
495.07466040	2638.00000000
495.54407874	2608.00000000
496.01354091	2627.00000000
496.48304686	2599.00000000
496.95259656	2639.00000000
497.42218997	2649.00000000
497.89182706	2551.00000000
498.36150779	2643.00000000
498.83123211	2630.00000000
499.30100000	2635.00000000
499.77081142	2685.00000000
500.24066633	2711.00000000
500.71056469	2658.00000000
501.18050648	2671.00000000
501.65049164	2714.00000000
502.12052014	2733.00000000
502.59059195	2769.00000000
503.06070704	2742.00000000
503.53086535	2689.00000000
504.00106686	2656.00000000
504.47131154	2811.00000000
504.94159933	2816.00000000
505.41193021	2844.00000000
505.88230414	2905.00000000
506.35272109	2971.00000000
506.82318101	2988.00000000
507.29368386	2971.00000000
507.76422962	3026.00000000
508.23481825	3049.00000000
508.70544970	3022.00000000
509.17612395	3028.00000000
509.64684095	3066.00000000
510.11760067	3097.00000000
510.58840307	3125.00000000
511.05924812	3116.00000000
511.53013577	3132.00000000
512.00106600	3143.00000000
512.47203875	3164.00000000
512.94305401	3134.00000000
513.41411173	3170.00000000
513.88521187	3174.00000000
514.35635440	3197.00000000
514.82753927	3120.00000000
515.29876647	3149.00000000
515.77003593	3223.00000000
516.24134764	3168.00000000
516.71270155	3258.00000000
517.18409763	3290.00000000
517.65553584	3283.00000000
518.12701614	3305.00000000
518.59853850	3345.00000000
519.07010287	3237.00000000
519.54170923	3350.00000000
520.01335753	3271.00000000
520.48504774	3395.00000000
520.95677983	3381.00000000
521.42855375	3362.00000000
521.90036946	3386.00000000
522.37222694	3388.00000000
522.84412615	3396.00000000
523.31606704	3460.00000000
523.78804958	3430.00000000
524.26007374	3405.00000000
524.73213947	3483.00000000
525.20424675	3424.00000000
525.67639553	3441.00000000
526.14858578	3490.00000000
526.62081745	3390.00000000
527.09309052	3439.00000000
527.56540495	3466.00000000
528.03776070	3440.00000000
528.51015773	3430.00000000
528.98259601	3442.00000000
529.45507550	3428.00000000
529.92759616	3447.00000000
530.40015795	3420.00000000
530.87276085	3442.00000000
531.34540481	3458.00000000
531.81808979	3440.00000000
532.29081576	3423.00000000
532.76358269	3448.00000000
533.23639053	3484.00000000
533.70923924	3434.00000000
534.18212880	3512.00000000
534.65505917	3537.00000000
535.12803030	3528.00000000
535.60104217	3544.00000000
536.07409473	3533.00000000
536.54718794	3558.00000000
537.02032178	3581.00000000
537.49349620	3273.00000000
537.96671117	3563.00000000
538.43996665	3651.00000000
538.91326261	3640.00000000
539.38659900	3538.00000000
539.85997579	3637.00000000
540.33339294	3676.00000000
540.80685042	3570.00000000
541.28034819	3657.00000000
541.75388622	3689.00000000
542.22746446	3470.00000000
542.70108287	3443.00000000
543.17474144	3628.00000000
543.64844010	3692.00000000
544.12217884	3598.00000000
544.59595761	3654.00000000
545.06977637	3700.00000000
545.54363510	3680.00000000
546.01753374	3673.00000000
546.49147227	3673.00000000
546.96545065	3660.00000000
547.43946884	3657.00000000
547.91352680	3629.00000000
548.38762450	3595.00000000
548.86176191	3515.00000000
549.33593897	3672.00000000
549.81015567	3578.00000000
550.28441195	3626.00000000
550.75870779	3634.00000000
551.23304315	3480.00000000
551.70741799	3698.00000000
552.18183227	3686.00000000
552.65628595	3674.00000000
553.13077901	3653.00000000
553.60531140	3635.00000000
554.07988309	3699.00000000
554.55449403	3699.00000000
555.02914420	3735.00000000
555.50383356	3749.00000000
555.97856206	3780.00000000
556.45332968	3665.00000000
556.92813637	3708.00000000
557.40298210	3747.00000000
557.87786683	3765.00000000
558.35279053	3773.00000000
558.82775315	3748.00000000
559.30275467	3812.00000000
559.77779504	3821.00000000
560.25287423	3820.00000000
560.72799221	3782.00000000
561.20314892	3886.00000000
561.67834435	3811.00000000
562.15357844	3875.00000000
562.62885117	3868.00000000
563.10416249	3856.00000000
563.57951238	3839.00000000
564.05490079	3863.00000000
564.53032769	3855.00000000
565.00579303	3908.00000000
565.48129679	3822.00000000
565.95683893	3886.00000000
566.43241940	3876.00000000
566.90803818	3769.00000000
567.38369523	3850.00000000
567.85939050	3775.00000000
568.33512397	3828.00000000
568.81089559	3876.00000000
569.28670533	3858.00000000
569.76255316	3848.00000000
570.23843902	3813.00000000
570.71436290	3842.00000000
571.19032475	3898.00000000
571.66632453	3877.00000000
572.14236222	3877.00000000
572.61843776	3896.00000000
573.09455113	3823.00000000
573.57070228	3895.00000000
574.04689119	3916.00000000
574.52311781	3886.00000000
574.99938211	3927.00000000
575.47568405	4035.00000000
575.95202359	4010.00000000
576.42840070	3827.00000000
576.90481534	4058.00000000
577.38126747	4061.00000000
577.85775706	4130.00000000
578.33428407	4176.00000000
578.81084846	4192.00000000
579.28745020	4152.00000000
579.76408925	4169.00000000
580.24076557	4272.00000000
580.71747912	4094.00000000
581.19422988	4221.00000000
581.67101780	4246.00000000
582.14784284	4327.00000000
582.62470497	4278.00000000
583.10160416	4265.00000000
583.57854035	4308.00000000
584.05551353	4269.00000000
584.53252365	4367.00000000
585.00957067	4365.00000000
585.48665456	4385.00000000
585.96377529	4360.00000000
586.44093280	4412.00000000
586.91812708	4395.00000000
587.39535807	4382.00000000
587.87262575	4384.00000000
588.34993007	4362.00000000
588.82727101	4354.00000000
589.30464852	4420.00000000
589.78206256	4400.00000000
590.25951311	4434.00000000
590.73700012	4399.00000000
591.21452355	4395.00000000
591.69208338	4391.00000000
592.16967956	4474.00000000
592.64731205	4431.00000000
593.12498082	4466.00000000
593.60268584	4534.00000000
594.08042706	4485.00000000
594.55820445	4501.00000000
595.03601797	4481.00000000
595.51386759	4530.00000000
595.99175326	4533.00000000
596.46967496	4526.00000000
596.94763264	4585.00000000
597.42562627	4561.00000000
597.90365581	4537.00000000
598.38172122	4581.00000000
598.85982248	4638.00000000
599.33795953	4565.00000000
599.81613235	4561.00000000
600.29434089	4691.00000000
600.77258513	4621.00000000
601.25086501	4759.00000000
601.72918052	4714.00000000
602.20753161	4779.00000000
602.68591823	4754.00000000
603.16434037	4786.00000000
603.64279797	4699.00000000
604.12129101	4750.00000000
604.59981945	4825.00000000
605.07838324	4786.00000000
605.55698236	4787.00000000
606.03561676	4804.00000000
606.51428641	4828.00000000
606.99299127	4811.00000000
607.47173131	4819.00000000
607.95050648	4821.00000000
608.42931676	4877.00000000
608.90816210	4828.00000000
609.38704248	4823.00000000
609.86595784	4798.00000000
610.34490816	4801.00000000
610.82389339	4819.00000000
611.30291351	4782.00000000
611.78196847	4809.00000000
612.26105823	4766.00000000
612.74018277	4801.00000000
613.21934204	4837.00000000
613.69853601	4810.00000000
614.17776464	4726.00000000
614.65702789	4815.00000000
615.13632573	4800.00000000
615.61565812	4826.00000000
616.09502502	4824.00000000
616.57442640	4797.00000000
617.05386221	4683.00000000
617.53333243	4794.00000000
618.01283702	4777.00000000
618.49237593	4870.00000000
618.97194914	4893.00000000
619.45155660	4819.00000000
619.93119828	4929.00000000
620.41087415	4919.00000000
620.89058415	4920.00000000
621.37032827	4884.00000000
621.85010646	4954.00000000
622.32991868	4903.00000000
622.80976490	4943.00000000
623.28964508	4981.00000000
623.76955919	4965.00000000
624.24950718	5015.00000000
624.72948902	5047.00000000
625.20950468	5067.00000000
625.68955412	4960.00000000
626.16963729	4985.00000000
626.64975417	5062.00000000
627.12990471	5086.00000000
627.61008889	4987.00000000
628.09030666	5118.00000000
628.57055798	5009.00000000
629.05084283	5118.00000000
629.53116115	5103.00000000
630.01151293	5066.00000000
630.49189811	5087.00000000
630.97231666	5058.00000000
631.45276855	5146.00000000
631.93325374	5052.00000000
632.41377219	5085.00000000
632.89432387	5027.00000000
633.37490873	5070.00000000
633.85552675	5047.00000000
634.33617788	5088.00000000
634.81686209	5046.00000000
635.29757934	5048.00000000
635.77832959	5048.00000000
636.25911281	5036.00000000
636.73992897	5067.00000000
637.22077801	4913.00000000
637.70165992	5028.00000000
638.18257464	4981.00000000
638.66352215	4983.00000000
639.14450240	4993.00000000
639.62551537	4955.00000000
640.10656101	5025.00000000
640.58763928	4951.00000000
641.06875016	4954.00000000
641.54989359	5008.00000000
642.03106956	4908.00000000
642.51227801	5016.00000000
642.99351892	5034.00000000
643.47479224	4780.00000000
643.95609794	5001.00000000
644.43743598	4939.00000000
644.91880633	4987.00000000
645.40020894	4971.00000000
645.88164379	4930.00000000
646.36311083	5066.00000000
646.84461003	5013.00000000
647.32614135	5048.00000000
647.80770476	5023.00000000
648.28930022	5059.00000000
648.77092768	5028.00000000
649.25258712	5014.00000000
649.73427850	5053.00000000
650.21600177	5028.00000000
650.69775691	5033.00000000
651.17954388	5030.00000000
651.66136264	5042.00000000
652.14321315	5083.00000000
652.62509538	5062.00000000
653.10700929	5025.00000000
653.58895484	5032.00000000
654.07093200	5075.00000000
654.55294072	5094.00000000
655.03498098	5073.00000000
655.51705274	4989.00000000
655.99915595	5024.00000000
656.48129059	4986.00000000
656.96345661	4965.00000000
657.44565398	5026.00000000
657.92788266	4996.00000000
658.41014262	5012.00000000
658.89243382	5061.00000000
659.37475621	4984.00000000
659.85710978	5017.00000000
660.33949447	5006.00000000
660.82191025	4943.00000000
661.30435708	4953.00000000
661.78683493	4942.00000000
662.26934377	4915.00000000
662.75188354	4935.00000000
663.23445423	4800.00000000
663.71705578	4897.00000000
664.19968817	4957.00000000
664.68235136	4907.00000000
665.16504530	4854.00000000
665.64776997	4820.00000000
666.13052532	4871.00000000
666.61331133	4861.00000000
667.09612794	4835.00000000
667.57897514	4781.00000000
668.06185287	4695.00000000
668.54476110	4767.00000000
669.02769980	4817.00000000
669.51066893	4848.00000000
669.99366845	4866.00000000
670.47669833	4898.00000000
670.95975852	4890.00000000
671.44284900	4809.00000000
671.92596972	4795.00000000
672.40912065	4846.00000000
672.89230175	4883.00000000
673.37551298	4838.00000000
673.85875431	4887.00000000
674.34202570	4894.00000000
674.82532712	4819.00000000
675.30865852	4908.00000000
675.79201988	4874.00000000
676.27541115	4918.00000000
676.75883229	4887.00000000
677.24228328	4903.00000000
677.72576406	4938.00000000
678.20927462	4997.00000000
678.69281490	4882.00000000
679.17638488	4926.00000000
679.65998451	4990.00000000
680.14361377	4994.00000000
680.62727260	5028.00000000
681.11096098	4987.00000000
681.59467887	4992.00000000
682.07842623	4924.00000000
682.56220303	5030.00000000
